Sensor Model:   RX-102B-Lakeshore_hifi
Serial Number:  RX102B
Data Format:    4      (Log Ohms/Kelvin)
SetPoint Limit: 10      (Kelvin)
Temperature coefficient:  1 (Negative)
Number of Breakpoints:   68

No.   Units      Temperature (K)

 
1      3.0322157033       100         
2       3.1411360901      10          
3       3.179838928       5           
4       3.2255677134      2           
5   3.2342066802  1.9539304047
6   3.2392328287  1.7969891485
7   3.244515806   1.6526535399
8   3.2500549501  1.519911083
9   3.2558495989  1.3978306066
10  3.2618990904  1.2855557319
11  3.2682027624  1.1822988652
12  3.274759953   1.0873356727
13  3.28157       1
14  3.2886322414  0.9196791985
15  3.2959460151  0.8458098282
16  3.303510659   0.7778737049
17  3.3113255112  0.7153942654
18  3.3193899094  0.6579332247
19  3.3277031917  0.6050875007
20  3.336264696   0.5564863877
21  3.3450737602  0.511788955
22  3.3541297222  0.470681656
23  3.36343192    0.4328761281
24  3.3729796915  0.3981071706
25  3.3827723747  0.3661308835
26  3.3928093074  0.3367229575
27  3.4030898277  0.3096770997
28  3.4136132734  0.2848035868
29  3.4243789825  0.2619279345
30  3.4353862929  0.2408896729
31  3.4466345425  0.2215412213
32  3.4581230693  0.2037468528
33  3.4698512112  0.1873817423
34  3.4818183062  0.1723310906
35  3.4940236922  0.1584893192
36  3.506466707   0.1457593301
37  3.5191466887  0.1340518239
38  3.5320629752  0.1232846739
39  3.5452149044  0.1133823501
40  3.5586018142  0.1042753889
41  3.5722230427  0.0958999061
42  3.5860779276  0.0881971488
43  3.6001658069  0.0811130831
44  3.6144860187  0.0745980152
45  3.6290379007  0.0686062429
46  3.643820791   0.0630957344
47  3.6588340275  0.0580278345
48  3.6740769481  0.0533669923
49  3.6895488907  0.0490805127
50  3.7052491934  0.0451383266
51  3.7211771938  0.04151278
52  3.7373322302  0.0381784403
53  3.7537136403  0.0351119173
54  3.7703207622  0.0322917
55  3.7871529337  0.0296980048
56  3.8042094927  0.0273126372
57  3.8214897773  0.0251188643
58  3.8389931253  0.023101297
59  3.8567188747  0.0212457823
60  3.8746663634  0.019539304
61  3.8928349293  0.0179698915
62  3.9112239104  0.0165265354
63  3.9298326446  0.0151991108
64  3.9486604699  0.0139783061
65  3.9677067241  0.0128555573
66  3.9869707453  0.0118229887
67  4.0064518712  0.0108733567
68  4.02614944    0.01
