Sensor Model:   RX-2700C-Entropy_hifi
Serial Number:  RX270C
Data Format:    4      (Log Ohms/Kelvin)
SetPoint Limit: 10      (Kelvin)
Temperature coefficient:  1 (Negative)
Number of Breakpoints:   58

No.   Units      Temperature (K)

 
1      3.4331295176          100       
2     3.5337720584           10        
3     3.614053106            5         
4     3.778802204            2         
5     3.7946586225          1.7969891485
6     3.8226695127          1.6526535399
7     3.8482906435          1.519911083
8     3.8724035841          1.3978306066
9     3.8957276844          1.2855557319
10    3.9188391199          1.1822988652
11    3.9421889231          1.0873356727
12    3.96612               1
13    3.9908831314          0.9196791985
14    4.0166519602          0.8458098282
15    4.0435369635          0.7778737049
16    4.0715984104          0.7153942654
17    4.1008583053          0.6579332247
18    4.1313113158          0.6050875007
19    4.1629346866          0.5564863877
20    4.1956971389          0.511788955
21    4.2295667539          0.470681656
22    4.2645178435          0.4328761281
23    4.3005368049          0.3981071706
24    4.3376269607          0.3661308835
25    4.3758123851          0.3367229575
26    4.415140715           0.3096770997
27    4.4556849461          0.2848035868
28    4.4975442144          0.2619279345
29    4.5408435644          0.2408896729
30    4.5857326999          0.2215412213
31    4.6323837235          0.2037468528
32    4.6809878582          0.1873817423
33    4.7317511565          0.1723310906
34    4.7848891945          0.1584893192
35    4.8406207503          0.1457593301
36    4.8991604688          0.1340518239
37    4.9607105118          0.1232846739
38    5.0254511924          0.1133823501
39    5.0935305959          0.1042753889
40    5.165053186           0.0958999061
41    5.2400673948          0.0881971488
42    5.3185522007          0.0811130831
43    5.4004026891          0.0745980152
44    5.4854145995          0.0686062429
45    5.5732678595          0.0630957344
46    5.6635091006          0.0580278345
47    5.7555331624          0.0533669923
48    5.8485635819          0.0490805127
49    5.9416320655          0.0451383266
50    6.0335569491          0.04151278
51    6.1229206436          0.0381784403
52    6.2080460628          0.0351119173
53    6.2869720404          0.0322917
54    6.3574277291          0.0296980048
55    6.4168059872          0.0273126372
56    6.4621357501          0.0251188643
57    6.4900533862          0.023101297
58    6.4967730388          0.0212457823
