Sensor	Model:	RX-103-TTO		
Serial	Number:	XTTO004		
Data	Format:	4	(Log	Ohms/Kelvin)
SetPoint	Limit:	100	(Kelvin)	
Temperature	coefficient:	1	(Negative)	
Number	of	Breakpoints:	175	

No.	Units	Temperature	(K)									

1	4.008135824605475	100.00299999999999
2	4.008936406904035	97.7315
3	4.009310641080199	95.5109
4	4.00994779786479	93.3322
5	4.010914489420639	91.2087
6	4.011676149933909	89.1333
7	4.011980440510842	87.1029
8	4.01292154554456	85.1206
9	4.013515543357108	83.1836
10	4.014440728763975	81.2922
11	4.015158491260141	79.4427
12	4.0160174061920495	77.635
13	4.016845382750578	75.8749
14	4.0174256974069005	74.1389
15	4.018467481271061	72.4509
16	4.019253414422923	70.8015
17	4.0196769786456095	69.1891
18	4.021106568432121	67.6141
19	4.021739057306924	66.0759
20	4.022865332818903	64.5692
21	4.023639241673914	63.1179
22	4.0246703472520045	61.6765
23	4.0250435705372425	60.2754
24	4.026480149062127	58.9036
25	4.027300670428161	57.5487
26	4.02880704148181	56.2399
27	4.029521755880346	54.9613
28	4.030539005538995	53.7072
29	4.031271084270531	52.4858
30	4.0323447224179185	51.2899
31	4.032936912043972	50.1219
32	4.034540225330963	48.9782
33	4.0354457487459	47.8627
34	4.03640929760525	46.7753
35	4.0377491106822365	45.7102
36	4.038663867337858	44.6696
37	4.040167036482847	43.6523
38	4.040942364761539	42.6595
39	4.042051523152904	41.6876
40	4.043543032673608	40.7393
41	4.044347656272274	39.8132
42	4.0455224736681625	38.9094
43	4.04660830808549	38.0226
44	4.047944294244873	37.1463
45	4.04907840557562	36.3111
46	4.050530553629363	35.4844
47	4.051692641798037	34.6774
48	4.052920839015765	33.8967
49	4.054521130653083	33.117
50	4.0553553926803865	32.3605
51	4.0566037885520485	31.6246
52	4.0578866177941455	30.9045
53	4.059491471269463	30.2026
54	4.0608186707033935	29.5153
55	4.062047717932797	28.843000000000004
56	4.06344220045425	28.1873
57	4.064985561086079	27.5438
58	4.066329653195669	26.916999999999998
59	4.067457715620406	26.3035
60	4.06912025933216	25.7035
61	4.070425786249036	25.1192
62	4.072073349158126	24.5472
63	4.073667038262255	23.9879
64	4.074922442354038	23.441999999999997
65	4.076458387712152	22.9091
66	4.077956257253354	22.3868
67	4.07982135844151	21.8777
68	4.080770746840722	21.3801
69	4.08289303328818	20.893
70	4.084104195344151	20.4168
71	4.08590750176431	19.9526
72	4.087330567865698	19.4979
73	4.08889411265287	19.0549
74	4.090564878882318	18.6208
75	4.092446931877078	18.197
76	4.094041163488836	17.7827
77	4.095984849627232	17.3781
78	4.097489843195501	16.9819
79	4.099172861952807	16.5959
80	4.100859712514904	16.2183
81	4.10284173703428	15.8489
82	4.1046953315418495	15.488
83	4.1062249048967985	15.136
84	4.108202960784058	14.790999999999999
85	4.11025965577253	14.454
86	4.112149021120741	14.1245
87	4.113472054195492	13.8038
88	4.115707010837435	13.4899
89	4.117966935491767	13.1832
90	4.119598965178544	12.8817
91	4.121756758487815	12.589
92	4.123766732994386	12.3032
93	4.125939716688161	12.0232
94	4.127771932439844	11.7485
95	4.12995721674802	11.4819
96	4.132144374803128	11.2199
97	4.134397068892673	10.9653
98	4.13657472116507	10.7148
99	4.13859633986822	10.470999999999998
100	4.140624300239107	10.2331
101	4.14335522865412	9.9997
102	4.1454046434434195	9.7724
103	4.147667050950311	9.55
104	4.149979232439923	9.3322
105	4.152401490881022	9.12
106	4.155013993510371	8.9121
107	4.1569729418962975	8.7096
108	4.159861836054678	8.5109
109	4.1623224006414326	8.3174
110	4.164783961605498	8.1282
111	4.1672050536342615	7.9433
112	4.16962153976427	7.7626
113	4.172608768462054	7.5857
114	4.174856107981183	7.4129
115	4.177660566344619	7.2445
116	4.180163164370715	7.0792
117	4.182990666368834	6.9065
118	4.185621470804172	6.7588
119	4.188399700082211	6.5953
120	4.1915180817929425	6.4568
121	4.193861716285275	6.3099
122	4.1970488726136415	6.171
123	4.199999125196797	6.0264
124	4.202918583952621	5.8874
125	4.205796917699117	5.7496
126	4.208758361685042	5.6231
127	4.211798430119764	5.4963
128	4.2148703286112195	5.37
129	4.21795220330608	5.2478
130	4.2213933703388795	5.1278
131	4.2244527741538	5.0139
132	4.227619364203937	4.9003
133	4.230995277679806	4.7861
134	4.234570428187	4.6721
135	4.237400457649894	4.5712
136	4.240466874276181	4.4674
137	4.244155847862022	4.3672
138	4.247703281934172	4.265
139	4.251151343175355	4.1673
140	4.254651986005856	4.0729
141	4.2584576861337835	3.9792
142	4.262109215284617	3.8926
143	4.265876305018723	3.8016
144	4.269690361633088	3.7133
145	4.273045278341623	3.6328
146	4.276790273106281	3.5459
147	4.2810538309034945	3.4688
148	4.284577353981857	3.3874
149	4.288517501797074	3.3138
150	4.292479808320382	3.2362
151	4.296781425248658	3.1637
152	4.300704152596124	3.0905
153	4.305093296061648	3.0207
154	4.309008084904102	2.9482
155	4.312987199275376	2.8831
156	4.317616282741985	2.8192
157	4.321666768998232	2.7557
158	4.326055117640978	2.6916
159	4.330576096087729	2.6285
160	4.335078605050886	2.572
161	4.339836868073593	2.5106
162	4.344280246633632	2.4552
163	4.348810920405178	2.4002
164	4.353539255854608	2.344
165	4.358353701033265	2.29
166	4.36351420562684	2.2405
167	4.367516188984583	2.1888
168	4.372645087490317	2.1390000000000002
169	4.376990981691228	2.0893
170	4.3808170217402385	2.0431
171	4.385422150904383	1.9934
172	4.38994888115996	1.9511
173	4.394122332740608	1.9058
174	4.39854239145591	1.8633
175	4.405127706268088	1.8004
