Sensor	Model:	RX-103-TTO		
Serial	Number:	XTTO002		
Data	Format:	4	(Log	Ohms/Kelvin)
SetPoint	Limit:	100	(Kelvin)	
Temperature	coefficient:	1	(Negative)	
Number	of	Breakpoints:	175	

No.	Units	Temperature	(K)									

1	4.0104229327814656	100.00299999999999
2	4.011033057713708	97.7315
3	4.011684605329465	95.5109
4	4.012356283057885	93.3322
5	4.013039567222532	91.2087
6	4.013422916322322	89.1333
7	4.014360904100703	87.1029
8	4.015078798426963	85.1206
9	4.0159294978370585	83.1836
10	4.016711675253578	81.2922
11	4.0172963418816146	79.4427
12	4.018188528229057	77.635
13	4.019004065891014	75.8749
14	4.019610564510405	74.1389
15	4.020568434801363	72.4509
16	4.021449797617328	70.8015
17	4.022486108304155	69.1891
18	4.023079530723872	67.6141
19	4.024136614128981	66.0759
20	4.024986172442712	64.5692
21	4.026189942247518	63.1179
22	4.027059981567355	61.6765
23	4.027744982347408	60.2754
24	4.028847681785958	58.9036
25	4.029907050991891	57.5487
26	4.031012368708756	56.2399
27	4.0317275029826325	54.9613
28	4.033033519431138	53.7072
29	4.033853815719714	52.4858
30	4.034856972537934	51.2899
31	4.035869813695553	50.1219
32	4.0374583715953225	48.9782
33	4.037987928670989	47.8627
34	4.03939032156623	46.7753
35	4.04031746343485	45.7102
36	4.04158215414192	44.6696
37	4.0429494038136164	43.6523
38	4.043790465949818	42.6595
39	4.045056842982055	41.6876
40	4.046233650481332	40.7393
41	4.047535755199612	39.8132
42	4.048744694053373	38.9094
43	4.049745060332918	38.0226
44	4.050963321866368	37.1463
45	4.052058769169967	36.3111
46	4.053516360420291	35.4844
47	4.054861917467395	34.6774
48	4.055729906393189	33.8967
49	4.05745308765826	33.117
50	4.058642358551924	32.3605
51	4.0597526942092985	31.6246
52	4.061312969739176	30.9045
53	4.06297661804169	30.2026
54	4.064053457742979	29.5153
55	4.065437789646456	28.843000000000004
56	4.066717173286226	28.1873
57	4.068044785926521	27.5438
58	4.069734678695697	26.916999999999998
59	4.0710162364152245	26.3035
60	4.072668912777894	25.7035
61	4.074216495343209	25.1192
62	4.075554260398118	24.5472
63	4.07703706132462	23.9879
64	4.078761225005558	23.441999999999997
65	4.080601236508595	22.9091
66	4.081642498899093	22.3868
67	4.083420196389811	21.8777
68	4.084744244137608	21.3801
69	4.086519991726252	20.893
70	4.0879481492042515	20.4168
71	4.090067500150455	19.9526
72	4.091220125385867	19.4979
73	4.093278064048096	19.0549
74	4.095085623943178	18.6208
75	4.096868318736437	18.197
76	4.098307926190561	17.7827
77	4.100263681741458	17.3781
78	4.101774560069087	16.9819
79	4.1038208188273355	16.5959
80	4.105346654886877	16.2183
81	4.107616929991784	15.8489
82	4.109298375417481	15.488
83	4.1112625136590655	15.136
84	4.113184344461641	14.790999999999999
85	4.114881083426878	14.454
86	4.117145298828529	14.1245
87	4.119061139126028	13.8038
88	4.120883091451996	13.4899
89	4.123093413148879	13.1832
90	4.125097225171791	12.8817
91	4.126829225648085	12.589
92	4.129619007493405	12.3032
93	4.131400500073085	12.0232
94	4.133356849734173	11.7485
95	4.135526996212498	11.4819
96	4.137471215813121	11.2199
97	4.139816140610575	10.9653
98	4.1421015097802885	10.7148
99	4.144446546742706	10.470999999999998
100	4.146850224982149	10.2331
101	4.148803099602747	9.9997
102	4.151369850247461	9.7724
103	4.153930660767533	9.55
104	4.156394667662714	9.3322
105	4.158772465537825	9.12
106	4.160861529319655	8.9121
107	4.163823050441688	8.7096
108	4.166205063173285	8.5109
109	4.1686388861122685	8.3174
110	4.171158721589273	8.1282
111	4.173960894838437	7.9433
112	4.177005210406459	7.7626
113	4.179637952157813	7.5857
114	4.181860730809662	7.4129
115	4.184975190698261	7.2445
116	4.187864636100943	7.0792
117	4.190373724635034	6.9065
118	4.193430723726846	6.7588
119	4.196250818671331	6.5953
120	4.199030749259142	6.4568
121	4.201571899505426	6.3099
122	4.204998539742644	6.171
123	4.20795196201429	6.0264
124	4.211099173230202	5.8874
125	4.214340410319735	5.7496
126	4.21731545791844	5.6231
127	4.220670213932294	5.4963
128	4.2249291077037965	5.37
129	4.22816672141398	5.2478
130	4.231385475959811	5.1278
131	4.23510151755358	5.0139
132	4.238261941540129	4.9003
133	4.242064137859023	4.7861
134	4.245712495999452	4.6721
135	4.248875268951156	4.5712
136	4.252117261546594	4.4674
137	4.255889729555257	4.3672
138	4.260157283893169	4.265
139	4.263408803302289	4.1673
140	4.267129470667879	4.0729
141	4.2709023296755015	3.9792
142	4.275018654341535	3.8926
143	4.2788084557387345	3.8016
144	4.28282369472048	3.7133
145	4.286737076128718	3.6328
146	4.2906911244951935	3.5459
147	4.294525744676973	3.4688
148	4.298968727379185	3.3874
149	4.302882647346662	3.3138
150	4.307463946002273	3.2362
151	4.311342675588567	3.1637
152	4.316047966036108	3.0905
153	4.320385186254212	3.0207
154	4.324539662579065	2.9482
155	4.329666306327115	2.8831
156	4.333380764912811	2.8192
157	4.3379601581388725	2.7557
158	4.342706853309507	2.6916
159	4.347583686308583	2.6285
160	4.352155494502856	2.572
161	4.357067296901225	2.5106
162	4.362039283400967	2.4552
163	4.366753455625536	2.4002
164	4.371260018164283	2.344
165	4.377227910686107	2.29
166	4.382328685692975	2.2405
167	4.387400505579934	2.1888
168	4.392030054400074	2.1390000000000002
169	4.396847688404126	2.0893
170	4.4013591774326	2.0431
171	4.406175560673559	1.9934
172	4.41003788212696	1.9511
173	4.414762831169472	1.9058
174	4.4200663721572555	1.8633
175	4.427455272443663	1.8004
